File: Julia/LGM50 PBBM Validation/201204-LGM50-Conditioning-Charge+Discharge_Cycle2_Channel_1_Wb_1.CSV
Data_Point,Date_Time,Test_Time(s),Step_Time(s),Cycle_Index,Step_Index,Current(A),Voltage(V),Power(W),Charge_Capacity(Ah),Discharge_Capacity(Ah),Charge_Energy(Wh),Discharge_Energy(Wh),ACR(Ohm),dV/dt(V/s),Internal_Resistance(Ohm),dQ/dV(Ah/V),dV/dQ(V/Ah),Aux_Temperature_1(C),Aux_dT/dt_1(C),Aux_Temperature_2(C),Aux_dT/dt_2(C),Aux_Temperature_3(C),Aux_dT/dt_3(C),Aux_Temperature_4(C),Aux_dT/dt_4(C),Aux_Temperature_5(C),Aux_dT/dt_5(C),Aux_Temperature_6(C),Aux_dT/dt_6(C),Aux_Temperature_7(C),Aux_dT/dt_7(C),Aux_Temperature_8(C),Aux_dT/dt_8(C),Aux_Temperature_9(C),Aux_dT/dt_9(C),Aux_Temperature_10(C),Aux_dT/dt_10(C),Aux_Temperature_11(C),Aux_dT/dt_11(C),Aux_Temperature_12(C),Aux_dT/dt_12(C),Aux_Temperature_13(C),Aux_dT/dt_13(C),Aux_Temperature_14(C),Aux_dT/dt_14(C),Aux_Temperature_15(C),Aux_dT/dt_15(C),Aux_Temperature_16(C),Aux_dT/dt_16(C),Aux_Temperature_17(Espec(C)),Aux_dT/dt_17(Espec(C))
1,12/04/2020 17:36:52:017,10.0001,10.0001,1,1,0,3.473289,0,0,0,0,0,,-0.000286738,,,,28.33334,0.007663965,-270,0,-270,0,-270,0,-270,0,-270,0,-270,0,-270,0,-270,0,-270,0,-270,0,-270,0,-270,0,-270,0,-270,0,-270,0,25.4,0
357,12/04/2020 17:43:11:772,389.7556,353.0001,1,3,3.396332,3.67324,12.4755,0.3326872,0,1.208539,0,,,,,,27.85386,-0.1651841,-270,0,-270,0,-270,0,-270,0,-270,0,-270,0,-270,0,-270,0,-270,0,-270,0,-270,0,-270,0,-270,0,-270,0,-270,0,24.3,0
713,12/04/2020 17:49:07:772,745.7556,709.0001,1,3,3.39608,3.72466,12.6492,0.6685008,0,2.451118,0,,,,,,28.4808,0.12519,-270,0,-270,0,-270,0,-270,0,-270,0,-270,0,-270,0,-270,0,-270,0,-270,0,-270,0,-270,0,-270,0,-270,0,-270,0,25,0
1069,12/04/2020 17:55:03:772,1101.76,1065,1,3,3.397003,3.775214,12.8244,1.004323,0,3.71049,0,,,,,,27.92152,-0.1858461,-270,0,-270,0,-270,0,-270,0,-270,0,-270,0,-270,0,-270,0,-270,0,-270,0,-270,0,-270,0,-270,0,-270,0,-270,0,25,0
1425,12/04/2020 18:00:59:772,1457.76,1421,1,3,3.396751,3.823421,12.9872,1.340146,0,4.986142,0,,,,,,28.13914,0.05150318,-270,0,-270,0,-270,0,-270,0,-270,0,-270,0,-270,0,-270,0,-270,0,-270,0,-270,0,-270,0,-270,0,-270,0,-270,0,25,0
1781,12/04/2020 18:06:55:772,1813.76,1777,1,3,3.396759,3.884049,13.1932,1.675954,0,6.279728,0,,,,,,28.00488,-0.1770085,-270,0,-270,0,-270,0,-270,0,-270,0,-270,0,-270,0,-270,0,-270,0,-270,0,-270,0,-270,0,-270,0,-270,0,-270,0,25,0
2137,12/04/2020 18:12:51:772,2169.76,2133,1,3,3.396828,3.957379,13.4425,2.011791,0,7.596277,0,,,,,,28.58954,0.06720543,-270,0,-270,0,-270,0,-270,0,-270,0,-270,0,-270,0,-270,0,-270,0,-270,0,-270,0,-270,0,-270,0,-270,0,-270,0,25,0
2493,12/04/2020 18:18:47:773,2525.76,2489,1,3,3.39724,4.02959,13.6895,2.347654,0,8.937699,0,,,,,,28.65283,-0.005611181,-270,0,-270,0,-270,0,-270,0,-270,0,-270,0,-270,0,-270,0,-270,0,-270,0,-270,0,-270,0,-270,0,-270,0,-270,0,24.9,0
2849,12/04/2020 18:24:43:773,2881.76,2845,1,3,3.397156,4.097495,13.9198,2.683522,0,10.30246,0,,,,,,28.09157,-0.2261794,-270,0,-270,0,-270,0,-270,0,-270,0,-270,0,-270,0,-270,0,-270,0,-270,0,-270,0,-270,0,-270,0,-270,0,-270,0,25,0
3205,12/04/2020 18:30:39:773,3237.756,3201,1,3,3.396698,4.172833,14.1739,3.019378,0,11.691,0,,0.000215047,,,,28.26147,-0.07466018,-270,0,-270,0,-270,0,-270,0,-270,0,-270,0,-270,0,-270,0,-270,0,-270,0,-270,0,-270,0,-270,0,-270,0,-270,0,25,0
3561,12/04/2020 18:36:35:773,3593.76,3557,1,3,2.452917,4.200107,10.3025,3.320549,0,12.95431,0,,,,,,27.96638,-0.04151762,-270,0,-270,0,-270,0,-270,0,-270,0,-270,0,-270,0,-270,0,-270,0,-270,0,-270,0,-270,0,-270,0,-270,0,-270,0,25,0
3917,12/04/2020 18:42:31:772,3949.76,3913,1,3,1.786675,4.200105,7.50422,3.525201,0,13.81385,0,,,,,,27.87801,0.09511113,-270,0,-270,0,-270,0,-270,0,-270,0,-270,0,-270,0,-270,0,-270,0,-270,0,-270,0,-270,0,-270,0,-270,0,-270,0,25,0
4273,12/04/2020 18:48:27:773,4305.756,4269,1,3,1.467513,4.199996,6.16355,3.684556,0,14.48314,0,,,,,,27.22583,-0.103963,-270,0,-270,0,-270,0,-270,0,-270,0,-270,0,-270,0,-270,0,-270,0,-270,0,-270,0,-270,0,-270,0,-270,0,-270,0,25,0
4629,12/04/2020 18:54:23:772,4661.76,4625,1,3,1.230459,4.200004,5.16793,3.817717,0,15.04241,0,,,,,,26.99699,-0.1023716,-270,0,-270,0,-270,0,-270,0,-270,0,-270,0,-270,0,-270,0,-270,0,-270,0,-270,0,-270,0,-270,0,-270,0,-270,0,25,0
4985,12/04/2020 19:00:19:773,5017.76,4981,1,3,0.9973581,4.199965,4.18887,3.927823,0,15.50486,0,,,,,,27.51674,0.188508,-270,0,-270,0,-270,0,-270,0,-270,0,-270,0,-270,0,-270,0,-270,0,-270,0,-270,0,-270,0,-270,0,-270,0,-270,0,25,0
5341,12/04/2020 19:06:15:772,5373.76,5337,1,3,0.7624661,4.200033,3.20238,4.014608,0,15.86936,0,,,,,,27.63689,0.01667976,-270,0,-270,0,-270,0,-270,0,-270,0,-270,0,-270,0,-270,0,-270,0,-270,0,-270,0,-270,0,-270,0,-270,0,-270,0,24.9,0
5697,12/04/2020 19:12:11:772,5729.76,5693,1,3,0.5491081,4.199995,2.30625,4.079053,0,16.14003,0,,,,,,27.49271,0.1093823,-270,0,-270,0,-270,0,-270,0,-270,0,-270,0,-270,0,-270,0,-270,0,-270,0,-270,0,-270,0,-270,0,-270,0,-270,0,25,0
6053,12/04/2020 19:18:07:772,6085.76,6049,1,3,0.3775133,4.199916,1.58552,4.124454,0,16.33071,0,,,,,,27.09572,0.179671,-270,0,-270,0,-270,0,-270,0,-270,0,-270,0,-270,0,-270,0,-270,0,-270,0,-270,0,-270,0,-270,0,-270,0,-270,0,25,0
6409,12/04/2020 19:24:03:772,6441.76,6405,1,3,0.2560239,4.199802,1.07525,4.155376,0,16.46058,0,,,,,,26.7141,-0.02146661,-270,0,-270,0,-270,0,-270,0,-270,0,-270,0,-270,0,-270,0,-270,0,-270,0,-270,0,-270,0,-270,0,-270,0,-270,0,25.1,0
6765,12/04/2020 19:29:59:773,6797.76,6761,1,3,0.1726747,4.199943,0.725224,4.17621,0,16.54809,0,,,,,,27.03882,-0.05341172,-270,0,-270,0,-270,0,-270,0,-270,0,-270,0,-270,0,-270,0,-270,0,-270,0,-270,0,-270,0,-270,0,-270,0,-270,0,25,0
7121,12/04/2020 19:35:55:772,7153.76,7117,1,3,0.1198681,4.199991,0.503445,4.190413,0,16.60773,0,,,,,,27.6441,0.1771605,-270,0,-270,0,-270,0,-270,0,-270,0,-270,0,-270,0,-270,0,-270,0,-270,0,-270,0,-270,0,-270,0,-270,0,-270,0,25,0
7477,12/04/2020 19:41:51:773,7509.76,7473,1,3,0.08447584,4.199988,0.354798,4.200339,0,16.64942,0,,,,,,27.39869,-0.2329075,-270,0,-270,0,-270,0,-270,0,-270,0,-270,0,-270,0,-270,0,-270,0,-270,0,-270,0,-270,0,-270,0,-270,0,-270,0,25.1,0
7833,12/04/2020 19:47:47:772,7865.76,7829,1,3,0.06302153,4.199978,0.264689,4.207528,0,16.67962,0,,,,,,28.24768,-0.1457584,-270,0,-270,0,-270,0,-270,0,-270,0,-270,0,-270,0,-270,0,-270,0,-270,0,-270,0,-270,0,-270,0,-270,0,-270,0,25,0
8189,12/04/2020 19:54:38:167,8276.15,110.0002,1,4,0,4.196924,0,4.212204,0,16.69926,0,,1.2723e-05,,,,27.6011,-0.06782234,-270,0,-270,0,-270,0,-270,0,-270,0,-270,0,-270,0,-270,0,-270,0,-270,0,-270,0,-270,0,-270,0,-270,0,-270,0,25,0
8545,12/04/2020 20:23:57:229,10035.212,69.0006,1,6,-5.002258,3.959065,-19.8043,4.212204,0.09584986,16.69926,0.3827055,,,,2.00009,,27.14236,0.1396173,-270,0,-270,0,-270,0,-270,0,-270,0,-270,0,-270,0,-270,0,-270,0,-270,0,-270,0,-270,0,-270,0,-270,0,-270,0,25,0
8901,12/04/2020 20:29:53:228,10391.2,425.0005,1,6,-5.001358,3.862318,-19.3168,4.212204,0.5903996,16.69926,2.312525,,,,,,28.47419,0.03639281,-270,0,-270,0,-270,0,-270,0,-270,0,-270,0,-270,0,-270,0,-270,0,-270,0,-270,0,-270,0,-270,0,-270,0,-270,0,25,0
9257,12/04/2020 20:35:49:229,10747.212,781.0006,1,6,-5.002472,3.766408,-18.8414,4.212204,1.084952,16.69926,4.201072,,,,,,28.65236,0.05028546,-270,0,-270,0,-270,0,-270,0,-270,0,-270,0,-270,0,-270,0,-270,0,-270,0,-270,0,-270,0,-270,0,-270,0,-270,0,25,0
9613,12/04/2020 20:41:45:228,11103.2,1137,1,6,-5.002052,3.655022,-18.2826,4.212204,1.579529,16.69926,6.035594,,,,,,29.14794,0.1015526,-270,0,-270,0,-270,0,-270,0,-270,0,-270,0,-270,0,-270,0,-270,0,-270,0,-270,0,-270,0,-270,0,-270,0,-270,0,25,0
9969,12/04/2020 20:47:41:228,11459.2,1493,1,6,-5.00193,3.550169,-17.7577,4.212204,2.074074,16.69926,7.817624,,,,,,29.54614,0.1388174,-270,0,-270,0,-270,0,-270,0,-270,0,-270,0,-270,0,-270,0,-270,0,-270,0,-270,0,-270,0,-270,0,-270,0,-270,0,25,0
10325,12/04/2020 20:53:37:228,11815.2,1849,1,6,-5.002106,3.441913,-17.2168,4.212204,2.568657,16.69926,9.546187,,,,,,29.13634,-0.1006317,-270,0,-270,0,-270,0,-270,0,-270,0,-270,0,-270,0,-270,0,-270,0,-270,0,-270,0,-270,0,-270,0,-270,0,-270,0,25,0
10681,12/04/2020 20:59:33:228,12171.2,2205,1,6,-5.002815,3.355615,-16.7875,4.212204,3.063273,16.69926,11.22648,,,,,,29.31829,0.01396298,-270,0,-270,0,-270,0,-270,0,-270,0,-270,0,-270,0,-270,0,-270,0,-270,0,-270,0,-270,0,-270,0,-270,0,-270,0,25,0
11037,12/04/2020 21:05:29:229,12527.2,2561,1,6,-5.002571,3.275634,-16.3866,4.212204,3.557866,16.69926,12.86671,,-0.000257622,,,,30.07244,0.03189147,-270,0,-270,0,-270,0,-270,0,-270,0,-270,0,-270,0,-270,0,-270,0,-270,0,-270,0,-270,0,-270,0,-270,0,-270,0,25,0
11393,12/04/2020 21:11:25:228,12883.2,2917,1,6,-5.002914,3.168693,-15.8527,4.212204,4.052478,16.69926,14.46267,,,,,,30.25259,0.1273948,-270,0,-270,0,-270,0,-270,0,-270,0,-270,0,-270,0,-270,0,-270,0,-270,0,-270,0,-270,0,-270,0,-270,0,-270,0,25,0
11749,12/04/2020 21:17:21:229,13239.2,3273,1,6,-5.0028,2.910357,-14.5599,4.212204,4.547124,16.69926,15.97754,,-0.00118515,,,,30.95368,0.02487123,-270,0,-270,0,-270,0,-270,0,-270,0,-270,0,-270,0,-270,0,-270,0,-270,0,-270,0,-270,0,-270,0,-270,0,-270,0,25,0
12105,12/04/2020 21:23:16:903,13594.9,154.0001,1,7,0,2.915293,0,4.212204,4.827286,16.69926,16.74837,,,,,,29.99732,-0.04074574,-270,0,-270,0,-270,0,-270,0,-270,0,-270,0,-270,0,-270,0,-270,0,-270,0,-270,0,-270,0,-270,0,-270,0,-270,0,25,0
12461,12/04/2020 21:29:12:904,13950.9,510.0005,1,7,0,2.946059,0,4.212204,4.827286,16.69926,16.74837,,5.30258e-05,,,,27.86737,-0.1020455,-270,0,-270,0,-270,0,-270,0,-270,0,-270,0,-270,0,-270,0,-270,0,-270,0,-270,0,-270,0,-270,0,-270,0,-270,0,25,0
12817,12/04/2020 21:48:50:966,15128.9,488.0004,1,9,3.395187,3.565173,12.1044,4.672384,4.827286,18.28967,16.74837,,,,,,28.00604,-0.04302442,-270,0,-270,0,-270,0,-270,0,-270,0,-270,0,-270,0,-270,0,-270,0,-270,0,-270,0,-270,0,-270,0,-270,0,-270,0,25,0
13173,12/04/2020 22:00:42:965,15840.9,1200,1,9,1.618913,3.599884,5.8279,5.186197,4.827286,20.1366,16.74837,,,,,,27.82918,-0.003706217,-270,0,-270,0,-270,0,-270,0,-270,0,-270,0,-270,0,-270,0,-270,0,-270,0,-270,0,-270,0,-270,0,-270,0,-270,0,25,0
13529,12/04/2020 22:12:34:966,16552.9,1912,1,9,0.6637982,3.600014,2.38968,5.395888,4.827286,20.89149,16.74837,,,,,,27.22962,0.03122509,-270,0,-270,0,-270,0,-270,0,-270,0,-270,0,-270,0,-270,0,-270,0,-270,0,-270,0,-270,0,-270,0,-270,0,-270,0,25,0
13885,12/04/2020 22:24:26:966,17264.9,2624,1,9,0.3013351,3.599979,1.0848,5.486164,4.827286,21.21648,16.74837,,,,,,26.94791,0.004185438,-270,0,-270,0,-270,0,-270,0,-270,0,-270,0,-270,0,-270,0,-270,0,-270,0,-270,0,-270,0,-270,0,-270,0,-270,0,25,0
14241,12/04/2020 22:36:18:965,17976.9,3336,1,9,0.1471524,3.600013,0.529751,5.528192,4.827286,21.36778,16.74837,,,,,,26.78762,0.1543164,-270,0,-270,0,-270,0,-270,0,-270,0,-270,0,-270,0,-270,0,-270,0,-270,0,-270,0,-270,0,-270,0,-270,0,-270,0,25,0
14597,12/04/2020 22:48:10:966,18688.9,4048,1,9,0.07991906,3.600053,0.287713,5.549646,4.827286,21.44502,16.74837,,,,,,26.55107,0.02417624,-270,0,-270,0,-270,0,-270,0,-270,0,-270,0,-270,0,-270,0,-270,0,-270,0,-270,0,-270,0,-270,0,-270,0,-270,0,25,0
14910,12/04/2020 22:58:36:248,19314.2,4673.283,1,9,0.0499964,3.59997,0.179986,5.560671,4.827286,21.48471,16.74837,,8.06049e-06,0,0,0,26.72361,-0.07749379,-270,0,-270,0,-270,0,-270,0,-270,0,-270,0,-270,0,-270,0,-270,0,-270,0,-270,0,-270,0,-270,0,-270,0,-270,0,25,0