File: Julia/LGM50 PBBM Validation/210129_LGM50_GITT_Channel_3_Wb_1.CSV
Data_Point,Date_Time,Test_Time(s),Step_Time(s),Cycle_Index,Step_Index,Current(A),Voltage(V),Power(W),Charge_Capacity(Ah),Discharge_Capacity(Ah),Charge_Energy(Wh),Discharge_Energy(Wh),ACR(Ohm),dV/dt(V/s),Internal_Resistance(Ohm),dQ/dV(Ah/V),dV/dQ(V/Ah)
1,2021/01/29 08:32:05,30.0008,30.0007,1,1,0,3.071703,0,0,0,0,0,,-1.03127e-05,,,
280,2021/01/29 09:38:59,4043.408,2140,1,4,1.499935,3.581188,5.37155,0.8906245,0.000000001739925,3.088765,0.000000005344285,,5.06151e-05,,,
559,2021/01/29 10:25:29,6833.41,4930,1,4,1.500032,3.763975,5.64608,2.051718,0.000000001739925,7.359852,0.000000005344285,,6.38475e-05,,,
838,2021/01/29 11:11:59,9623.41,7720,1,4,1.49991,3.988601,5.98254,3.212862,0.000000001739925,11.86198,0.000000005344285,,5.33406e-05,,,
1117,2021/01/29 11:58:29,12413.4,10510,1,4,1.356349,4.199965,5.69662,4.370745,0.000000001739925,16.61925,0.000000005344285,,,,,
1396,2021/01/29 12:44:59,15203.4,13300,1,4,0.07734507,4.199989,0.324848,4.766577,0.000000001739925,18.28175,0.000000005344285,,1.35923e-05,,,
1675,2021/01/29 15:00:06,23310.8,438.0002,1,6,-1.250179,4.070789,-5.08921,4.774758,0.1519174,18.31611,0.6225855,,,,,
1954,2021/01/29 15:07:05,23729.9,137.0004,1,7,0,4.10336,0,4.774758,0.2497324,18.31611,1.019814,,,,,
2233,2021/01/29 15:11:44,24008.9,416.0004,1,7,0,4.106218,0,4.774758,0.2497324,18.31611,1.019814,,,,,
2512,2021/01/29 16:48:48,29832.9,5640,1,8,0,4.108641,0,4.774758,0.2497324,18.31611,1.019814,,9.48293e-06,,,
2791,2021/01/29 19:09:30,38274.9,282.0002,1,6,-1.250165,4.041691,-5.05278,4.774758,0.347556,18.31611,1.416111,,,,,
3070,2021/01/29 19:17:47,38772,59.0004,1,7,0,4.076261,0,4.774758,0.4994788,18.31611,2.028883,,,,,
3349,2021/01/29 19:22:26,39050.96,338.0002,1,7,0,4.083552,0,4.774758,0.4994788,18.31611,2.028883,,,,,
3628,2021/01/29 19:42:48,40273,960,1,8,0,4.085604,0,4.774758,0.4994788,18.31611,2.028883,,-8.13945e-06,,,
3907,2021/01/29 23:18:54,53239,126.0008,1,6,-1.250188,4.026365,-5.03371,4.774758,0.5431914,18.31611,2.205283,,,,,
4186,2021/01/29 23:28:12,53797,684,1,6,-1.250182,3.99737,-4.99744,4.774758,0.7367455,18.31611,2.981772,,,,,
4465,2021/01/29 23:33:08,54093.1,260.0002,1,7,0,4.05843,0,4.774758,0.749237,18.31611,3.031692,,,,,
4744,2021/01/29 23:37:47,54372.1,539.0001,1,7,0,4.060082,0,4.774758,0.749237,18.31611,3.031692,,,,,
5023,2021/01/30 03:15:48,67453.1,13020,1,8,0,4.062215,0,4.774758,0.749237,18.31611,3.031692,,-1.2565e-05,,,
5302,2021/01/30 03:37:36,68761.1,528,1,6,-1.25019,3.957014,-4.94702,4.774758,0.9323879,18.31611,3.760954,,,,,
5581,2021/01/30 03:43:50,69135.171,182.0009,1,7,0,4.006085,0,4.774758,0.9989882,18.31611,4.023953,,,,,
5860,2021/01/30 03:48:29,69414.2,461.0004,1,7,0,4.01023,0,4.774758,0.9989882,18.31611,4.023953,,,,,
6139,2021/01/30 06:09:48,77893.2,8340,1,8,0,4.013504,0,4.774758,0.9989882,18.31611,4.023953,,5.21561e-06,,,
6418,2021/01/30 07:47:00,83725.2,372.0003,1,6,-1.249973,3.910493,-4.88801,4.774758,1.128023,18.31611,4.53152,,,,,
6697,2021/01/30 07:54:32,84177.3,104.0007,1,7,0,3.938744,0,4.774758,1.248707,18.31611,5.001696,,,,,
6976,2021/01/30 07:59:11,84456.3,383.0001,1,7,0,3.953813,0,4.774758,1.248707,18.31611,5.001696,,,,,
7255,2021/01/30 09:03:48,88333.3,3660,1,8,0,3.95983,0,4.774758,1.248707,18.31611,5.001696,,-2.24429e-05,,0,0
7534,2021/01/30 11:56:25,98689.3,216.0007,1,6,-1.250216,3.872372,-4.8413,4.774758,1.323637,18.31611,5.293261,,,,,
7813,2021/01/30 12:05:15,99219.4,26.0004,1,7,0,3.876332,0,4.774758,1.498467,18.31611,5.966711,,,,,
8092,2021/01/30 12:09:54,99498.4,305.0003,1,7,0,3.89656,0,4.774758,1.498467,18.31611,5.966711,,,,,
8371,2021/01/30 12:14:33,99777.4,584.0004,1,7,0,3.906344,0,4.774758,1.498467,18.31611,5.966711,,,,,
8650,2021/01/30 16:05:49,113653,60.0005,1,6,-1.250165,3.856462,-4.82121,4.774758,1.51929,18.31611,6.047248,,,,1.02008,1.02458
8929,2021/01/30 16:15:07,114211,618.0004,1,6,-1.250212,3.799081,-4.74966,4.774758,1.712841,18.31611,6.786777,,-7.38878e-05,,,
9208,2021/01/30 16:20:36,114540,227.0008,1,7,0,3.844557,0,4.774758,1.748224,18.31611,6.921075,,,,,
9487,2021/01/30 16:25:15,114819,506.0004,1,7,0,3.848826,0,4.774758,1.748224,18.31611,6.921075,,,,,
9766,2021/01/30 19:30:49,125954,11040,1,8,0,3.870066,0,4.774758,1.748224,18.31611,6.921075,,-1.93216e-05,,0,
10045,2021/01/30 20:24:33,129178,464.0002,1,6,-1.250239,3.764958,-4.7071,4.774758,1.909171,18.31611,7.530758,,,,,
10324,2021/01/30 20:31:19,129584,150,1,7,0,3.794324,0,4.774758,1.997965,18.31611,7.864182,,1.88868e-05,,,
10603,2021/01/30 20:35:58,129863,429.0002,1,7,0,3.797374,0,4.774758,1.997965,18.31611,7.864182,,,,,
10882,2021/01/30 22:25:49,136454,6420,1,8,0,3.801021,0,4.774758,1.997965,18.31611,7.864182,,3.35461e-05,,0,0
11161,2021/01/31 00:33:59,144144,310.0002,1,6,-1.25023,3.72404,-4.65591,4.774758,2.105507,18.31611,8.26636,,,,,
11440,2021/01/31 00:42:02,144627,73.0007,1,7,0,3.739516,0,4.774758,2.247739,18.31611,8.793723,,,,,
11719,2021/01/31 00:46:41,144906,352.0003,1,7,0,3.746832,0,4.774758,2.247739,18.31611,8.793723,,,,,
11998,2021/01/31 01:20:49,146954,1800,1,8,0,3.75011,0,4.774758,2.247739,18.31611,8.793723,,3.69834e-05,,,
12277,2021/01/31 04:43:25,159110,156.001,1,6,-1.25017,3.684358,-4.60607,4.774758,2.301862,18.31611,8.99382,,,,,
12556,2021/01/31 04:52:43,159668,714.0002,1,6,-1.250228,3.638396,-4.54882,4.774758,2.495407,18.31611,9.702213,,,,,
12835,2021/01/31 04:57:24,159949,275.0004,1,7,0,3.69721,0,4.774758,2.49749,18.31611,9.709792,,,,,
13114,2021/01/31 05:02:03,160228,554.0003,1,7,0,3.699906,0,4.774758,2.49749,18.31611,9.709792,,,,,
13393,2021/01/31 08:52:51,174076,2.0005,1,6,-1.250212,3.670953,-4.58947,4.774758,2.498193,18.31611,9.712375,,-0.0013395,,0.00115649,864.685
13672,2021/01/31 09:02:09,174634,560.0002,1,6,-1.250186,3.603264,-4.50475,4.774758,2.691761,18.31611,10.41434,,,,,
13951,2021/01/31 09:08:07,174992,198,1,7,0,3.652965,0,4.774758,2.747261,18.31611,10.61405,,3.47309e-05,,,
14230,2021/01/31 09:12:46,175271,477.0004,1,7,0,3.659486,0,4.774758,2.747261,18.31611,10.61405,,,,,
14510,2021/01/31 19:58:43,184731,9337.46,1,8,0,3.665964,0,4.774758,2.747261,18.31611,10.61405,,0.00153269,,0,0
14789,2021/01/31 21:19:51,189600,406.0005,1,6,-1.249762,3.575494,-4.46852,4.774758,2.888054,18.31611,11.12024,,0.00918995,,,
15068,2021/01/31 21:27:06,190034.996,121,1,7,0,3.612516,0,4.774758,2.996917,18.31611,11.50846,,-0.00221389,,0,
15347,2021/01/31 21:31:45,190314,400.0001,1,7,0,3.623828,0,4.774758,2.996917,18.31611,11.50846,,-0.00272478,,,
15626,2021/01/31 22:53:05,195194.021,4680,1,8,0,3.63423,0,4.774758,2.996917,18.31611,11.50846,,-0.00100387,,,
15905,2021/02/01 01:29:15,204564,250.0008,1,6,-1.249998,3.555056,-4.44381,4.774758,3.083638,18.31611,11.81828,,0.00814958,,,
16184,2021/02/01 01:37:48,205077,43.0006,1,7,0,3.567333,0,4.774758,3.24664,18.31611,12.39485,,0.000866977,,,
16463,2021/02/01 01:42:27,205356,322.0006,1,7,0,3.584441,0,4.774758,3.24664,18.31611,12.39485,,0.00817435,,,
16742,2021/02/01 01:47:05,205634,600.0008,1,7,0,3.587434,0,4.774758,3.24664,18.31611,12.39485,,0.00340598,0,0,0
17021,2021/02/01 05:38:42,219530,96.0005,1,6,-1.249757,3.529552,-4.41108,4.774758,3.279936,18.31611,12.51275,,0.007456,,,
17300,2021/02/01 05:48:00,220088,654.0004,1,6,-1.249798,3.476932,-4.34546,4.774758,3.473414,18.31611,13.19003,,0.00391688,,,
17579,2021/02/01 05:53:11,220399,245.0002,1,7,0,3.529607,0,4.774758,3.4963,18.31611,13.26954,,-0.000334623,,,
17858,2021/02/01 05:57:50,220678,524.0005,1,7,0,3.532259,0,4.774758,3.4963,18.31611,13.26954,,-0.00173395,,,
18137,2021/02/01 09:21:06,232874,12120,1,8,0,3.537381,0,4.774758,3.4963,18.31611,13.26954,,0.000851495,,0,0
18416,2021/02/01 09:57:24,235052,498.0006,1,6,-1.250169,3.439025,-4.29936,4.774758,3.669047,18.31611,13.86723,,-0.00647136,,,
18695,2021/02/01 10:03:53,235441,167.0009,1,7,0,3.478828,0,4.774758,3.746067,18.31611,14.13154,,-0.020634,,,
18974,2021/02/01 10:08:32,235720.309,446.0002,1,7,0,3.482005,0,4.774758,3.746067,18.31611,14.13154,,0.00552127,,,
19253,2021/02/01 12:15:06,243314,7440,1,8,0,3.486587,0,4.774758,3.746067,18.31611,14.13154,,-0.000773249,,0,0
19532,2021/02/01 14:06:50,250018,344.0003,1,6,-1.250152,3.401652,-4.25258,4.774758,3.865393,18.31611,14.53952,,-0.00102179,,,
19811,2021/02/01 14:14:36,250484,90,1,7,0,3.425714,0,4.774758,3.99581,18.31611,14.9809,,-0.0226498,,,
20090,2021/02/01 14:19:15,250763,369.0002,1,7,0,3.435204,0,4.774758,3.99581,18.31611,14.9809,,0.000190735,,,
20369,2021/02/01 15:10:06,253814,2820,1,8,0,3.442757,0,4.774758,3.99581,18.31611,14.9809,,0.00260093,,0,0
20648,2021/02/01 18:16:16,264984,190.0003,1,6,-1.250192,3.338935,-4.17431,4.774758,4.061719,18.31611,15.20303,,-0.00698226,,,
20927,2021/02/01 18:25:19,265527.516,13.0002,1,7,0,3.303325,0,4.774758,4.245569,18.31611,15.81011,,0.000340598,,,
21206,2021/02/01 18:29:58,265807,292.0005,1,7,0,3.332737,0,4.774758,4.245569,18.31611,15.81011,,-0.0180331,,,
21485,2021/02/01 18:34:37,266086,571.0005,1,7,0,3.336794,0,4.774758,4.245569,18.31611,15.81011,,-0.000170299,,,
21764,2021/02/01 22:25:42,279951,36.0012,1,6,-1.250225,3.290226,-4.11352,4.774758,4.258065,18.31611,15.85139,,-0.00170299,,,
22043,2021/02/01 22:35:00,280509,594.0001,1,6,-1.25022,3.121014,-3.90195,4.774758,4.451623,18.31611,16.46904,,-0.000170299,,,
22322,2021/02/01 22:40:41,280850,215,1,7,0,3.176355,0,4.774758,4.495327,18.31611,16.60473,,0.000501934,,,
22601,2021/02/01 22:45:20,281129,494.0001,1,7,0,3.183865,0,4.774758,4.495327,18.31611,16.60473,,-0.00690592,,,
22880,2021/02/02 01:39:06,291555,10320,1,8,0,3.210178,0,4.774758,4.495327,18.31611,16.60473,,0.00710921,,0,
23159,2021/02/02 02:44:26,295475,440.0001,1,6,-1.249985,2.964358,-3.7054,4.774758,4.64793,18.31611,17.0684,,-0.00476837,,,
23438,2021/02/02 02:51:24,295893,138.0001,1,7,0,2.95978,0,4.774758,4.745031,18.31611,17.35052,,-0.00544957,,,
23717,2021/02/02 02:56:03,296172,417.0004,1,7,0,2.980261,0,4.774758,4.745031,18.31611,17.35052,,0.000520186,,,
23996,2021/02/02 04:34:06,302055,5700,1,8,0,3.027095,0,4.774758,4.745031,18.31611,17.35052,,-0.00119209,,0,
24275,2021/02/02 06:53:52,310441,286.0005,1,6,-1.250159,2.60345,-3.25473,4.774758,4.844231,18.31611,17.62554,,0.00554865,,0.273816,
24554,2021/02/02 07:03:08,310997,484.0006,1,10,0,2.744277,0,4.774758,4.86921,18.31611,17.68933,,-0.014045,,0,
24833,2021/02/02 10:45:04,324313,13200,1,11,0,2.85707,0,4.774758,4.86921,18.31611,17.68933,,0.00624223,,0,
24875,2021/02/02 11:25:04,326713,1800,1,13,0,2.8613,0,4.77476,4.869221,18.31611,17.68937,,-0.00568858,0,0,0